Surface analysis

Generated: Wednesday 07 July 2021 18:03:11

						
Left filename	Left2_2m.jpg					
Left frame number	      0					
Plane definition points	213					
RMS plane fit (mm)	83.259					
X plane direction (unit vector)	[0.9965, -0.0000, 0.0839]					
Y plane direction (unit vector)	[-0.0049, 0.9983, 0.0579]					
Z plane direction (unit vector)	[-0.0838, -0.0581, 0.9948]					
Plane shift (mm)	[-1402.1682, -839.5778, -2016.5303]					
						
Transformed coordinates						
X (mm)	Y (mm)	Z (mm)				
2212.861	936.931	190.148				
579.602	546.968	303.808				
604.314	1391.715	419.411				
1306.814	704.168	181.127				
1614.537	1279.407	88.122				
1155.988	203.335	182.103				
1761.379	194.361	286.046				
451.277	1018.998	143.317				
302.076	805.793	254.853				
0.000	427.784	183.823				
1673.627	722.020	227.465				
715.200	1203.533	134.251				
578.070	133.875	33.300				
1395.751	1482.913	75.076				
1085.830	872.348	300.100				
740.935	837.722	227.422				
45.777	1089.200	47.904				
1973.085	1319.915	51.410				
1397.017	274.957	224.790				
1938.364	394.105	303.696				
1030.563	554.525	189.170				
1410.211	1073.207	168.039				
1819.793	748.188	226.169				
357.781	599.660	364.058				
48.980	18.083	176.870				
987.833	1255.761	282.247				
1651.757	1047.866	161.135				
2014.333	0.000	261.603				
2010.636	1114.789	277.832				
1501.084	919.984	156.072				
581.487	325.240	121.676				
844.091	1415.629	315.799				
269.732	300.709	118.814				
1171.020	1423.700	211.524				
192.028	757.911	291.380				
1078.257	1390.989	237.136				
668.027	1340.306	382.212				
574.693	1311.650	386.317				
759.103	1402.280	370.760				
1808.801	292.198	353.175				
1237.374	1349.377	180.728				
500.525	703.317	281.644				
2026.039	918.112	130.799				
1672.902	1156.608	88.922				
1174.301	891.922	220.798				
303.630	404.354	194.931				
1707.609	1357.833	64.768				
1829.234	1347.340	62.051				
1070.839	1275.477	228.024				
739.554	1288.415	273.342				
1493.214	377.701	226.358				
1451.132	1287.033	146.399				
2119.075	538.505	174.502				
1574.708	1191.287	118.076				
1221.372	527.685	199.427				
1083.841	1126.208	326.680				
1757.388	125.182	323.642				
625.944	1202.476	172.843				
1767.419	1235.483	68.909				
428.026	1147.222	155.570				
1137.841	310.783	157.237				
983.186	642.286	231.101				
1491.495	1191.244	92.915				
662.339	692.311	266.782				
161.976	860.788	251.561				
1163.608	1125.937	341.733				
1461.834	766.880	179.004				
1121.283	471.976	154.858				
1246.240	222.600	223.754				
1286.089	1445.103	135.409				
1876.278	1155.361	124.906				
697.051	206.380	65.043				
1221.189	773.292	222.709				
1521.527	598.546	201.662				
2184.314	811.274	187.185				
859.865	1292.488	317.340				
1899.824	1070.662	127.088				
902.882	1027.237	280.472				
2167.860	726.311	177.948				
1803.014	455.223	310.087				
1601.602	462.873	261.567				
350.349	1007.615	101.882				
1266.059	995.897	258.940				
122.257	984.256	166.437				
270.640	987.879	119.917				
992.935	974.142	322.046				
1096.775	983.054	252.058				
1841.083	979.650	132.923				
446.694	434.988	321.501				
1959.059	253.671	231.821				
2100.573	951.256	239.236				
404.803	308.111	202.267				
444.438	916.886	187.066				
638.080	914.409	221.507				
1894.148	930.182	235.026				
1975.025	1177.762	98.584				
1262.938	913.466	260.446				
367.331	901.428	207.506				
917.783	147.574	0.000				
1444.199	506.433	222.511				
1157.326	1322.922	245.031				
270.680	1214.491	41.563				
1559.403	733.082	170.960				
1797.851	869.635	175.368				
1715.368	853.485	172.665				
180.857	1198.876	59.210				
525.555	824.220	192.337				
1620.202	829.208	164.147				
1753.132	284.569	265.713				
445.977	799.970	220.267				
865.716	333.971	55.253				
1181.173	1034.011	336.443				
1136.812	792.298	295.166				
1287.482	1072.339	297.410				
851.332	783.010	337.948				
305.475	1113.177	88.589				
1962.225	771.554	176.352				
882.573	469.657	178.601				
1025.755	364.466	192.153				
633.101	812.408	186.188				
1279.773	1233.163	120.115				
418.082	715.345	291.355				
1233.181	295.497	150.061				
1081.540	693.306	227.562				
567.174	700.483	236.143				
1360.188	1174.498	156.103				
1792.137	1075.931	110.283				
747.070	683.553	192.413				
1991.588	464.292	242.256				
115.384	563.568	284.706				
889.484	658.064	217.743				
45.509	333.618	170.147				
1821.129	663.712	236.078				
1651.366	257.601	281.708				
464.400	530.772	342.153				
965.240	1136.652	344.793				
529.059	1167.737	175.165				
1984.088	1057.323	137.758				
1438.854	606.317	209.083				
108.684	247.109	186.552				
189.561	1088.637	107.816				
466.005	261.454	61.014				
894.213	572.029	193.863				
200.767	292.132	181.592				
777.283	449.456	267.276				
1359.735	792.325	140.913				
1928.132	569.254	268.343				
2110.850	852.522	159.085				
538.168	905.357	162.940				
1190.781	1241.942	247.238				
661.697	538.012	288.810				
732.881	1001.653	266.529				
863.720	920.543	253.556				
328.789	497.951	252.356				
912.500	738.034	229.710				
761.512	925.828	261.861				
206.807	477.617	191.797				
1695.095	514.359	284.882				
251.983	169.727	86.671				
1526.746	513.226	228.751				
77.605	448.055	164.322				
987.720	458.319	217.321				
196.941	678.253	271.751				
1404.545	685.717	202.791				
214.327	60.704	183.058				
569.726	456.181	301.644				
2053.591	744.818	198.697				
1633.778	352.411	274.536				
826.940	1002.636	297.690				
167.299	371.276	148.750				
654.829	1268.004	338.758				
1724.079	437.588	301.893				
1205.396	394.366	150.038				
1868.383	1258.827	69.928				
786.982	1093.568	239.717				
989.673	790.958	200.157				
309.530	728.912	270.758				
397.987	1241.448	303.466				
610.135	1045.752	241.265				
800.278	534.174	234.484				
1499.179	1419.322	62.303				
734.778	309.700	98.436				
880.592	1117.200	326.587				
970.699	1396.213	319.491				
635.570	440.442	249.893				
837.499	1231.352	132.344				
1899.809	658.613	245.909				
1708.262	588.589	257.815				
1617.462	594.613	242.791				
700.379	1095.397	226.739				
1315.436	299.416	192.358				
2074.754	359.982	203.754				
1812.308	383.393	340.223				
212.488	905.033	190.673				
486.608	625.529	326.708				
808.274	188.441	16.714				
1555.573	269.685	265.770				
2.706	626.794	121.137				
1327.407	1363.447	125.495				
345.693	162.697	33.812				
518.407	1242.808	309.288				
2055.447	661.081	229.856				
352.366	93.400	101.893				
2113.586	454.080	187.131				
477.157	152.827	5.144				
195.772	145.639	155.588				
1467.371	204.511	270.529				
220.661	585.652	248.632				
58.376	102.265	180.935				
2003.570	135.177	260.705				
1475.346	289.490	253.966				
1912.512	115.230	266.359				
1166.043	631.470	239.228				
						
Triangle data						
X centre (mm)	Y centre (mm)	Z centre (mm)	Slope (deg)	Direction (deg)	Plan area (mm^2)	3D area (mm^2)
1231.349	702.977	214.355	23.970	97.115	7977.745	8730.694
1231.410	621.108	206.594	26.371	104.983	9316.195	10398.318
1128.132	705.691	253.985	31.985	226.472	5891.402	6945.885
1174.681	732.353	252.368	39.959	103.804	6507.278	8489.589
1092.715	626.434	218.653	17.852	236.434	7439.740	7816.062
1105.963	552.657	194.419	27.138	189.222	9082.085	10205.612
1169.566	543.711	197.838	27.072	200.476	6735.094	7563.811
1958.380	168.026	252.962	13.869	1.865	5838.858	6014.200
1810.426	144.924	292.016	33.339	37.739	5385.476	6446.323
1976.805	83.469	262.889	3.472	79.182	6261.849	6273.366
1894.744	80.137	283.868	26.211	52.137	8430.838	9397.093
1827.564	200.596	301.860	32.001	196.993	9269.518	10930.502
1893.457	220.367	283.785	38.754	91.450	11297.521	14486.893
1455.192	314.049	235.038	31.070	312.055	3324.932	3881.818
1508.044	312.292	248.698	18.427	348.478	3715.427	3916.215
1446.578	256.319	249.762	25.509	299.357	3270.199	3623.418
1499.430	254.562	263.422	12.723	334.618	3487.780	3575.573
2030.886	165.053	242.020	32.008	84.841	6021.043	7100.514
2012.461	249.610	232.093	14.001	3.182	9220.632	9502.932
35.785	182.710	180.543	7.940	256.244	3986.482	4025.069
34.628	287.889	178.302	24.433	80.934	4658.496	5116.712
120.944	165.004	174.358	14.000	117.602	8859.476	9130.701
156.158	102.869	173.194	19.233	12.762	6237.299	6605.999
107.228	60.350	180.288	2.988	209.520	6759.361	6768.561
70.857	227.664	179.211	12.123	279.335	6751.344	6905.348
180.950	542.279	241.712	36.805	141.525	5533.836	6911.463
177.662	609.158	268.363	22.055	112.284	5136.300	5541.830
295.991	638.075	294.483	43.990	293.999	9199.485	12786.570
242.378	664.272	263.714	13.875	153.908	5813.722	5988.446
302.411	561.088	288.349	49.243	220.366	6770.147	10370.127
252.086	520.407	230.928	32.238	221.475	6448.350	7623.614
1558.103	243.932	272.669	16.061	332.206	3654.511	3802.958
1625.375	195.765	291.960	14.056	330.421	14996.537	15459.381
1370.209	234.022	239.691	26.896	340.118	7152.570	8020.095
1289.866	210.148	225.462	41.733	198.347	2946.270	3948.064
1460.249	177.676	258.758	24.728	217.853	12521.334	13785.417
220.694	125.357	141.772	48.539	61.466	2610.633	3942.863
168.408	228.294	174.577	13.050	141.895	6632.306	6808.142
216.174	202.500	141.284	53.268	99.561	4057.112	6783.568
469.198	126.701	46.779	57.798	0.692	4181.018	7845.715
391.739	136.308	46.950	46.469	16.215	4522.146	6565.736
429.618	192.326	33.323	27.821	159.960	7085.243	8011.295
507.078	182.719	33.153	33.949	214.673	5375.252	6479.804
2133.507	572.965	179.860	41.559	283.414	1543.848	2063.221
2067.558	271.354	217.496	9.276	23.504	4146.571	4201.508
2059.976	426.118	211.047	24.283	91.205	5938.170	6514.534
2074.750	485.626	201.297	25.505	75.486	5177.856	5736.936
616.073	124.950	45.064	55.983	1.481	5329.091	9525.790
494.825	100.559	94.984	70.930	358.082	5504.266	16846.931
272.892	107.944	123.874	40.317	29.070	6909.145	9061.515
316.681	141.941	74.125	50.799	31.598	3223.449	5100.085
2092.299	710.737	202.167	24.170	32.740	4767.091	5225.157
2114.127	641.966	194.102	30.097	106.317	8964.805	10361.773
2034.218	589.613	224.234	26.782	115.136	10724.249	12012.862
1972.494	697.083	217.372	29.753	9.485	8711.924	10034.809
2023.754	725.818	201.635	21.482	339.696	3800.549	4084.260
1961.129	629.649	248.036	16.650	19.263	6988.774	7294.629
573.015	1252.311	289.483	60.585	158.506	4836.614	9847.843
557.803	1204.340	219.099	61.092	159.561	3821.695	7905.709
448.140	1210.493	256.108	57.663	181.107	5693.814	10644.728
491.830	1185.922	213.341	60.548	174.683	3901.603	7934.937
497.029	1265.302	333.024	47.467	181.895	4106.710	6074.935
289.136	211.044	79.766	32.093	120.532	6199.478	7317.739
340.076	257.172	118.298	47.400	211.425	9601.847	14185.444
405.500	244.087	99.031	62.673	145.801	5828.783	12697.083
1283.623	1385.976	147.211	31.455	73.361	3966.520	4649.786
1336.416	1430.488	111.993	27.542	75.149	5258.402	5930.499
1407.446	1421.894	87.625	21.032	47.464	8351.021	8947.096
1425.906	1356.601	111.399	30.877	17.790	10019.519	11674.073
1352.771	1294.548	130.670	9.063	276.011	9879.722	10004.628
1281.518	1315.329	142.113	35.576	113.192	5529.798	6798.835
56.913	900.083	111.826	50.466	282.800	19942.526	31329.915
95.646	823.946	179.712	51.938	283.092	14479.298	23485.922
130.558	687.653	228.089	37.101	247.494	7862.630	9858.192
105.010	622.872	225.865	52.140	309.522	9039.510	14728.654
118.903	748.498	221.359	44.315	276.082	11708.711	16364.015
26.770	500.878	156.427	19.582	28.476	7694.610	8166.942
65.231	546.139	190.055	60.758	254.431	7702.198	15766.975
1560.855	333.266	255.555	19.851	301.077	6803.066	7232.865
1613.572	293.232	274.005	9.482	285.937	4434.776	4496.200
768.043	156.630	16.671	9.519	141.954	7691.598	7798.994
694.465	176.232	38.353	43.664	162.453	5099.254	7049.037
802.923	277.371	56.801	30.564	136.192	8830.563	10255.396
863.925	223.329	23.989	16.023	170.601	9142.133	9511.651
746.701	234.840	60.065	30.154	141.566	6084.194	7036.385
544.461	624.327	288.886	39.623	53.323	6649.810	8633.217
518.102	676.443	281.498	39.891	57.124	2611.982	3404.262
510.203	567.756	324.223	18.383	74.665	5278.282	5562.117
420.824	646.845	327.373	29.407	18.932	6671.694	7658.437
468.405	681.397	299.902	30.056	19.921	3290.222	3801.387
436.263	585.320	344.306	16.052	69.717	5816.350	6052.334
165.574	916.693	202.891	43.907	29.179	3996.970	5547.751
201.795	959.056	159.009	35.392	24.779	6041.062	7410.487
293.965	870.752	217.678	29.617	350.312	7521.847	8652.265
283.486	931.447	172.699	42.601	354.546	6518.879	8856.134
225.513	857.205	232.363	45.914	20.218	4488.323	6451.214
1779.800	425.401	317.401	23.698	334.059	2916.889	3185.493
1791.414	320.053	319.704	58.185	277.253	2525.015	4789.664
1763.173	368.517	302.610	36.832	241.182	5963.117	7450.182
1851.229	410.907	318.002	27.350	29.074	4577.062	5153.090
1853.158	356.566	332.365	17.119	64.765	5729.023	5994.610
2001.569	406.126	249.902	40.162	71.433	5694.497	7451.334
1990.726	335.919	246.424	37.053	123.735	9223.842	11557.505
1417.616	394.517	213.742	10.142	258.139	13361.376	13573.454
1401.889	317.358	214.502	22.774	311.594	5367.439	5821.281
1251.338	329.760	164.152	27.791	254.328	4120.659	4657.914
1321.677	400.072	188.302	18.654	280.390	17503.121	18473.616
1319.564	265.657	213.634	32.676	340.271	3979.623	4727.887
1264.952	272.504	188.724	46.887	328.530	3023.704	4424.219
645.486	1114.541	213.616	24.364	349.328	6679.309	7332.305
680.508	1167.135	177.945	42.068	27.943	4818.036	6490.238
740.081	1063.539	244.328	21.860	339.282	4029.537	4341.721
681.132	1047.600	244.844	22.191	351.410	5036.733	5439.635
734.187	1130.833	200.236	41.449	351.443	4696.030	6265.147
1666.451	635.074	242.690	13.615	320.820	5953.421	6125.548
1616.831	683.238	213.739	29.493	305.011	7587.106	8716.650
1566.131	642.080	205.138	28.338	309.760	6527.819	7416.607
1581.937	523.570	244.370	20.039	299.691	5330.066	5673.555
1638.053	523.948	263.080	21.643	297.756	5750.121	6186.263
1555.245	568.795	224.401	26.970	305.018	4082.350	4580.501
1673.607	565.854	261.830	22.474	340.273	3409.711	3689.943
1734.340	658.107	240.453	13.451	8.446	8830.951	9080.022
1735.457	519.390	284.262	20.373	355.248	4394.738	4687.994
1777.468	569.175	267.994	19.900	352.642	11085.380	11789.322
1883.024	630.526	250.110	13.644	332.798	3443.183	3543.165
1846.911	690.171	236.052	9.352	314.500	3319.869	3364.593
1893.942	726.119	216.143	28.335	30.481	7314.044	8309.629
894.444	1161.735	267.908	57.865	339.492	5250.514	9870.916
835.024	1147.373	232.883	60.238	314.867	5852.016	11789.071
779.894	1176.151	168.771	40.767	348.196	7722.807	10196.903
930.191	1207.922	253.128	53.227	303.421	8677.363	14494.867
895.066	1259.867	243.977	70.851	190.762	4322.459	13177.256
764.084	1241.100	179.979	61.030	166.703	4851.743	10016.943
812.306	1270.752	241.009	71.218	185.201	3632.150	11281.215
691.516	475.970	268.660	21.071	194.886	6795.704	7282.639
715.877	399.866	205.202	50.072	182.241	9711.073	15130.444
594.966	481.197	285.115	37.521	97.977	3066.618	3866.471
625.623	508.474	280.837	24.494	162.733	4121.969	4529.614
650.612	358.460	156.669	48.517	178.124	9249.984	13964.293
595.594	407.288	224.404	54.694	160.668	4218.306	7298.850
1009.791	1309.150	276.587	35.717	104.519	5998.097	7387.628
1039.932	1354.226	261.551	37.601	99.541	6231.535	7865.345
995.270	1411.847	282.272	63.133	7.882	3684.681	8153.400
1073.326	1403.634	256.051	54.656	149.934	2001.412	3459.720
939.466	1314.821	306.359	17.533	139.469	8672.040	9094.557
891.552	1368.110	317.544	1.672	287.851	7642.183	7645.439
916.238	1093.696	317.284	28.513	189.755	4024.390	4579.911
870.138	1049.024	301.583	29.136	139.286	3690.157	4224.738
831.504	1071.134	287.998	45.052	281.914	4728.183	6692.687
792.592	364.376	140.322	56.409	157.061	8633.891	15605.488
671.105	280.440	95.052	20.937	162.571	8212.165	8792.738
1521.616	1328.587	98.941	32.052	37.351	10991.554	12968.370
1534.180	1420.023	67.382	23.973	197.898	3447.227	3772.678
1607.108	1352.188	71.731	13.372	13.701	11034.614	11342.128
736.348	585.246	238.569	30.395	43.503	10248.489	11881.518
746.419	507.214	263.523	25.977	55.127	5914.279	6578.932
820.045	484.429	226.787	39.597	78.340	4227.723	5486.682
859.022	525.287	202.316	29.092	111.926	4587.879	5250.259
861.325	588.089	215.363	30.436	114.999	4130.367	4790.516
812.277	625.264	214.880	15.109	329.719	9958.772	10315.334
533.193	990.036	182.507	32.222	245.169	10188.739	12043.596
595.461	955.172	208.571	31.932	244.334	6687.812	7880.318
530.157	1077.496	186.582	32.926	280.568	10773.635	12835.277
588.379	1138.655	196.424	25.219	343.020	7317.562	8088.537
660.365	987.271	243.100	19.355	233.227	7444.783	7890.752
424.327	1282.551	254.813	75.753	317.311	6784.018	27565.331
525.664	1314.938	369.731	24.445	231.786	6034.201	6628.370
377.162	1167.282	182.541	58.078	183.627	6285.109	11886.245
324.714	1189.705	144.539	63.686	263.585	6917.953	15605.804
343.229	750.017	272.322	14.188	318.991	4122.255	4251.962
361.798	681.306	308.723	34.637	351.308	6687.979	8128.612
232.833	721.692	277.963	14.900	154.042	4608.746	4769.094
267.878	764.206	272.330	18.073	45.340	4408.774	4637.579
948.776	895.214	258.586	35.324	201.170	11747.598	14398.404
1022.813	879.149	274.101	39.199	216.356	8674.458	11193.418
1070.772	818.535	265.141	38.495	233.760	5923.385	7568.213
1069.342	758.854	240.962	35.747	243.246	7245.767	8927.716
917.835	770.667	255.938	55.127	132.843	3354.112	5866.249
901.575	831.504	263.887	47.727	61.397	9464.061	14069.434
961.787	723.760	220.323	17.569	51.448	5565.063	5837.365
1018.133	708.850	219.607	12.616	340.787	7145.757	7322.549
782.268	1032.619	267.979	30.716	325.512	4296.096	4997.153
1890.234	1308.694	61.130	9.421	36.767	5829.498	5909.200
1837.360	1216.557	87.914	28.259	345.933	5315.313	6034.513
1821.679	1280.550	66.963	4.664	340.055	4925.247	4941.608
1938.831	1252.168	73.307	18.369	357.131	7501.100	7903.809
1906.562	1197.317	97.806	29.292	14.824	5196.951	5958.861
1290.322	476.161	190.658	20.792	201.207	15023.330	16069.917
1192.139	333.549	152.445	4.686	74.144	4500.686	4515.783
1154.840	392.375	154.044	4.665	73.769	6136.662	6157.060
1182.684	464.676	168.107	23.051	217.017	6226.918	6767.222
1653.153	417.624	279.332	18.021	274.032	6357.739	6685.736
1673.592	471.606	282.781	18.008	288.937	4334.904	4558.183
1740.729	469.056	298.954	12.393	319.947	3285.505	3363.885
1703.663	358.189	280.714	14.486	195.211	8146.205	8413.694
618.489	1260.710	299.306	66.861	195.706	3255.932	8285.703
632.516	1306.654	369.096	34.571	159.434	3185.021	3868.041
687.470	1298.909	331.437	50.973	128.980	2928.194	4650.283
665.324	1224.671	215.284	70.190	170.361	2909.109	8583.715
703.194	1253.318	248.784	67.027	147.901	3347.266	8576.076
212.599	321.372	149.719	48.110	47.029	2872.552	4302.165
246.887	358.779	154.165	34.971	194.438	6504.394	7937.572
158.917	303.506	172.298	20.966	341.198	4397.324	4709.111
107.164	317.334	168.483	15.450	20.212	6457.453	6699.557
225.912	417.749	178.493	22.039	220.769	6595.365	7115.302
150.570	432.316	168.290	20.780	200.225	6285.774	6723.112
96.804	384.316	161.073	9.934	89.418	6364.322	6461.202
817.391	949.669	271.036	27.294	173.913	4098.057	4611.478
773.778	976.705	275.360	20.717	240.554	3580.048	3827.548
864.514	983.472	277.240	27.350	137.405	3569.570	4018.800
1576.198	397.662	254.154	18.774	273.127	7356.622	7770.014
1679.425	298.193	273.986	9.342	52.610	5061.378	5129.406
2110.767	774.550	178.576	18.478	41.638	6683.429	7046.725
2042.222	789.631	178.045	24.074	344.619	5685.667	6227.341
537.909	511.307	315.868	19.128	100.127	5149.477	5450.396
493.606	473.981	321.766	18.060	141.032	5704.618	6000.236
532.635	405.470	248.274	54.373	163.682	8179.631	14042.229
393.697	75.454	119.976	66.319	166.456	7809.187	19442.851
1357.031	727.403	174.943	28.506	347.044	4796.006	5457.628
1408.704	748.307	174.236	28.262	331.665	4872.151	5531.572
1383.404	665.401	197.667	12.724	265.423	3563.421	3653.130
1475.261	728.560	184.252	13.481	38.069	4927.651	5067.278
1454.975	630.194	204.512	9.055	39.475	3148.871	3188.609
1495.159	672.449	191.804	13.406	38.552	9520.019	9786.681
1046.522	494.940	187.116	25.036	79.093	6132.227	6768.147
1044.919	431.587	188.111	25.704	99.025	6527.312	7244.142
970.832	528.291	200.118	15.162	14.553	6933.818	7183.896
921.502	500.002	196.595	21.513	254.413	5448.081	5856.039
959.730	385.585	154.909	43.223	232.605	8089.941	11102.019
912.003	420.649	150.392	44.075	208.373	7229.031	10062.264
41.038	403.152	172.764	14.449	94.703	4115.127	4249.541
